#   1 NUMBER                 Running object number                                     
#   2 X_IMAGE                Object position along x                                    [pixel]
#   3 Y_IMAGE                Object position along y                                    [pixel]
#   4 ALPHA_J2000            Right ascension of barycenter (J2000)                      [deg]
#   5 DELTA_J2000            Declination of barycenter (J2000)                          [deg]
#   6 FLUX_APER              Flux vector within fixed circular aperture(s)              [count]
#   7 FLUXERR_APER           RMS error vector for aperture flux(es)                     [count]
#   8 FLUX_RADIUS            Fraction-of-light radii                                    [pixel]
#   9 FWHM_IMAGE             FWHM assuming a gaussian core                              [pixel]
#  10 BACKGROUND             Background at centroid position                            [count]
#  11 THRESHOLD              Detection threshold above background                       [count]
#  12 FLUX_MAX               Peak flux above background                                 [count]
#  13 ISOAREA_IMAGE          Isophotal area above Analysis threshold                    [pixel**2]
#  14 A_IMAGE                Profile RMS along major axis                               [pixel]
#  15 B_IMAGE                Profile RMS along minor axis                               [pixel]
#  16 THETA_IMAGE            Position angle (CCW/x)                                     [deg]
#  17 FLAGS                  Extraction flags                                          
         1      3.8041    141.9001   0.0000000  +0.0000000     25717.46     1036.005     13.215    42.56     20613.71     310.6327     780.0098       278    11.873     4.234 -76.86  18
         2     58.4194      3.6641   0.0000000  +0.0000000    -6563.831     1029.427    -26.406     9.34     20755.97     310.6327     720.4414        20     1.851     1.314   9.37  19
         3     52.5716      2.8143   0.0000000  +0.0000000    -5254.484     975.2086    -12.054    12.37     20755.34     310.6327     617.5527        24     2.566     1.660 -82.58  19
         4     36.9648      4.6605   0.0000000  +0.0000000     7620.154     1078.929     -1.761    18.33     20753.51     310.6327     671.9434        48     4.226     2.209  17.96  19
         5     75.2077      3.1426   0.0000000  +0.0000000    -11145.72     996.8164    -65.303     9.40     20757.89     310.6327     610.9863        14     1.813     1.361   4.90  19
         6     81.9184      2.5595   0.0000000  +0.0000000    -10090.89     956.0223    -61.229     6.86      20758.7     310.6327     568.8008        13     2.028     0.650 -10.98  19
         7    988.7266      6.0599   0.0000000  +0.0000000     9125.264     1101.586      1.706     4.86     19472.93     310.6327     492.0488         5     0.943     0.709  65.43  17
         8    309.3477      4.0431   0.0000000  +0.0000000    -11413.71      1051.39    -21.091     6.72     20684.46     310.6327     482.9766         7     1.791     0.708 -38.84  16
         9    802.5724      2.5681   0.0000000  +0.0000000    -12793.68      956.668   -111.743     7.26     19910.94     310.6327     540.4277        10     1.693     0.872 -22.60  18
        10    232.1156      2.5700   0.0000000  +0.0000000    -13699.31     957.3133    -56.491     8.21     20747.62     310.6327     479.9043        11     2.072     0.909  -6.49  18
        11    208.0843      2.9650   0.0000000  +0.0000000     -13552.3     984.6615    -38.366     7.30     20755.18     310.6327     512.4609        10     1.613     0.926  13.30  16
        12    989.3130      2.5875   0.0000000  +0.0000000    -18015.47     958.2805    -24.224     5.76     19475.69     310.6327      456.123         8     1.357     0.689   3.58  17
        13    828.5361      2.5888   0.0000000  +0.0000000    -16254.83     957.9582    -59.678     6.61     19861.19     310.6327     524.4062         8     1.974     0.621   7.90  16
        14    723.4857      2.8400   0.0000000  +0.0000000    -14701.59     976.7904    -32.696     6.89     20047.06     310.6327     499.4688        11     1.560     0.854  -3.32  16
        15    614.6156      3.2093   0.0000000  +0.0000000    -14763.42     1000.835     -4.872     4.30     20234.65     310.6327     414.4551         5     0.959     0.549  39.53  16
        16    599.0709      2.8418   0.0000000  +0.0000000    -15610.93     976.7904    -39.403     5.81     20261.91     310.6327     412.4727         8     1.234     0.769   7.73  16
        17    105.6178      2.9707   0.0000000  +0.0000000     -10641.4     984.3479    -24.011    10.52     20760.44     310.6327     659.6328        19     2.956     1.044  -8.82  16
        18    281.0228      2.8115   0.0000000  +0.0000000    -13036.21     974.8919   -153.804     5.45     20708.01     310.6327     482.4434         6     1.310     0.640  22.83  18
        19    266.1029      2.7182   0.0000000  +0.0000000    -19536.67     968.8553      0.000     3.44     20720.14     310.6327     507.1816         5     0.993     0.344  44.88  16
        20    261.4159      2.6922   0.0000000  +0.0000000    -15001.38     965.3433    -35.362     6.68     20724.18     310.6327      507.375        11     1.763     0.710  16.80  17
        21    248.2512      3.1252   0.0000000  +0.0000000    -15710.37     996.1967    -21.296    10.33     20734.69     310.6327     557.3867        15     3.737     0.796   0.96  19
        22    172.6253      3.2277   0.0000000  +0.0000000    -9981.586     1002.685    -37.020     7.60     20759.09     310.6327     498.8887        12     1.676     0.964   2.33  18
        23    119.6200      3.0653   0.0000000  +0.0000000    -14178.89     991.8478    -31.505     6.77     20760.44     310.6327     583.0137        12     1.419     0.906 -12.56  17
        24    157.8052      2.5963   0.0000000  +0.0000000    -21429.44      956.668    -23.937     4.82     20760.44     310.6327     537.0273         8     1.126     0.583  22.99  17
        25    139.4335      2.5506   0.0000000  +0.0000000     -16451.3     955.6992    -53.136     5.27     20760.44     310.6327     397.4238         9     1.378     0.569 -17.86  17
        26    126.3472      2.8243   0.0000000  +0.0000000    -22524.25     976.4742    -94.418     6.85     20760.44     310.6327     533.7754        10     1.566     0.840  12.03  17
        27     41.3929      3.3249   0.0000000  +0.0000000    -19980.71     1007.293     -5.502    18.51     20753.95     310.6327     692.3555        55     7.260     1.311  35.72  19
        28    879.6470      2.9451   0.0000000  +0.0000000    -12476.97     984.0342     -1.869     3.75     19711.63     310.6327     428.0195         6     1.865     0.216 -24.87  16
        29    712.0125      2.7927   0.0000000  +0.0000000    -10613.74     971.0837    -53.410     9.01     20065.49     310.6327     484.0664        12     2.362     0.959   2.12  16
        30    769.9786      2.2113   0.0000000  +0.0000000    -16865.89     930.1569    -32.401     4.34     19968.19     310.6327     547.9141         6     1.316     0.408   0.17  16
        31    632.0322      3.5404   0.0000000  +0.0000000    -11372.15     1022.203     -5.049     3.91     20204.44     310.6327       434.75         5     1.331     0.329 -50.33  16
        32    810.1024      2.8976   0.0000000  +0.0000000    -10289.77     982.7782      0.000     3.83     19897.55     310.6327     511.9785         5     1.026     0.409 -45.01  18
        33    674.1701      2.3286   0.0000000  +0.0000000    -11828.93     939.0771    -23.842     6.00     20129.22     310.6327     565.2539        12     2.214     0.457   1.70  18
        34    654.9534      2.3999   0.0000000  +0.0000000    -17055.52     944.6503     -7.038     3.93     20162.99     310.6327     430.6191         5     0.903     0.488  -2.86  17
        35    586.3518      2.2768   0.0000000  +0.0000000    -14602.96      935.123    -21.708     4.40     20282.94     310.6327      510.416         7     1.711     0.322 -10.65  16
        36    470.4070      2.1521   0.0000000  +0.0000000    -16652.34     924.8303    -37.293     4.09     20463.78     310.6327     462.7383         6     1.499     0.318   6.53  16
        37    395.0920      2.2903   0.0000000  +0.0000000    -20178.12     938.4193    -11.656     4.90     20572.49     310.6327     473.7754         8     1.763     0.385   8.03  16
        38    379.1824      2.1906   0.0000000  +0.0000000    -24910.37     927.1644    -19.926     3.71     20600.27     310.6327     430.0996         5     1.176     0.336 -10.40  16
        39   1021.8037    318.3921   0.0000000  +0.0000000     3906.868     998.0546      1.160     4.42     19172.32     310.6327      475.832         5     1.158     0.479   5.09  16
        40      2.4007    277.6184   0.0000000  +0.0000000     4960.967     943.9963      3.535     5.46     20775.03     310.6327     551.4746         9     1.860     0.452  83.96  16
        41   1022.1010    262.6482   0.0000000  +0.0000000      5837.65     980.5764      4.961     5.28     19232.43     310.6327     507.1113         6     1.160     0.679 -80.67  16
        42      2.5367    109.0240   0.0000000  +0.0000000     9929.427     954.0824      1.450    10.69      20708.4     310.6327     641.1113        26     2.784     1.145 -88.82  19
        43    366.1885    649.1674   0.0000000  +0.0000000     13714.85     1100.745      4.902     5.39      20178.6     310.6327     430.0273         6     1.402     0.584  71.79   0
        44      3.4478    119.7634   0.0000000  +0.0000000     16483.31     1017.055      6.387    16.06     20676.18     310.6327     668.0391        60     3.980     1.801 -88.02  19
        45      2.2178     56.5396   0.0000000  +0.0000000     9294.139     930.8206      0.299     7.90     20745.88     310.6327     655.8418        15     2.430     0.719 -87.05  19
        46      3.2134     65.0871   0.0000000  +0.0000000     11486.08     1001.144      9.694    11.74      20745.6     310.6327     638.3359        23     2.725     1.410 -77.36  19
        47     10.3232     48.7705   0.0000000  +0.0000000     18506.23     1100.745      7.457    11.60     20748.11     310.6327      503.459        15     2.580     1.453  -1.80  19
        48      2.9961     46.8144   0.0000000  +0.0000000      8005.81     985.2885      4.980     6.23     20746.74     310.6327     525.3242        10     1.353     0.805  59.79  19
        49      3.5458     42.1573   0.0000000  +0.0000000     13081.21     1021.901      6.831     8.49     20747.26     310.6327     555.3438        19     1.658     1.215 -11.14  19
        50     12.0670     42.3890   0.0000000  +0.0000000     17723.81     1101.025      5.263     5.38     20748.85     310.6327     497.3164         5     1.254     0.650  27.43   1
        51    330.4142    618.3344   0.0000000  +0.0000000     15458.71     1100.745      6.575     7.16     20205.54     310.6327     547.8945        10     1.655     0.868 -78.61   1
        52    329.8770    606.9606   0.0000000  +0.0000000     21143.33     1100.745      5.782    12.39     20239.34     310.6327     537.7363        25     3.747     1.140 -48.97   0
        53    326.4696    604.1456   0.0000000  +0.0000000     20358.55     1101.586      8.752    10.75     20258.65     310.6327     509.9238        19     2.719     1.185 -12.48   3
        54    317.1670    600.0314   0.0000000  +0.0000000     18718.76     1101.306      5.378    11.12     20282.18     310.6327     557.1758        28     4.053     0.849  66.77   3
        55    313.3269    599.0438   0.0000000  +0.0000000     21616.53     1100.745      4.862    11.52     20287.16     310.6327     506.8047        25     3.067     1.206  71.71   3
        56    321.4496    599.0712   0.0000000  +0.0000000     23485.83     1101.025      8.208    18.53     20289.68     310.6327     569.1914        37     4.022     2.373 -40.33   3
        57   1022.0766    507.3478   0.0000000  +0.0000000     4124.076      982.464      1.255     4.73     19041.03     310.6327     477.1055         5     1.000     0.634  73.58  16
        58   1022.5435    451.7622   0.0000000  +0.0000000      6224.79     949.5406      3.594     4.52     19092.13     310.6327     480.7988         7     1.303     0.445  80.00  18
        59   1021.9724    399.2631   0.0000000  +0.0000000     5794.678       990.29      1.551     4.34     19170.91     310.6327     474.5078         6     1.166     0.460  73.46  16
        60    455.3706    341.3989   0.0000000  +0.0000000     12024.15     1100.464      4.053     4.48     20937.12     310.6327     546.6152         6     1.193     0.479  59.53   0
        61   1022.6039    339.2248   0.0000000  +0.0000000     5334.484     943.6692      1.258     3.51     19168.42     310.6327     437.4062         5     0.781     0.454 -73.43  17
        62   1021.9608    325.3028   0.0000000  +0.0000000     7417.562     990.6017      5.804     7.64     19172.04     310.6327     550.2715        11     2.020     0.809 -72.10  18
