[deneb_spectrum_neon.00000015.CF.ms.L.fits] 1 765 20.00 1.100  6324.535  7081.154 
 6350.00   9.1841E-10   50.000     4739373.
 6400.00   9.0305E-10   50.000     4731694.
 6450.00   8.8794E-10   50.000     4393288.
 6500.00   8.7308E-10   50.000     4317967.
 6550.00   8.5846E-10   50.000     4332229.
 6600.00   8.4409E-10   50.000     4184105.
 6650.00   8.2996E-10   50.000     3973843.
 6700.00   8.1608E-10   50.000     3984960.
 6750.00   8.0243E-10   50.000     4013758.
 6800.00   7.8902E-10   50.000     3692314.
 6850.00   7.7584E-10   50.000     3180119.
 6900.00   7.6289E-10   50.000     2899772.
 6950.00   7.5016E-10   50.000     3160552.
 7000.00   7.3766E-10   50.000     3073734.
 7050.00   7.2538E-10   50.000     2781440.
[deneb_spectrum_neon.00000015.CF.ms.L.fits] 1 765 20.00 1.100  6324.535  7081.154 
 6350.00   9.1841E-10   50.000     4739373.
 6400.00   9.0305E-10   50.000     4731694.
 6450.00   8.8794E-10   50.000     4393288.
 6500.00   8.7308E-10   50.000     4317967.
 6550.00   8.5846E-10   50.000     4332229.
 6600.00   8.4409E-10   50.000     4184105.
 6650.00   8.2996E-10   50.000     3973843.
 6700.00   8.1608E-10   50.000     3984960.
 6750.00   8.0243E-10   50.000     4013758.
 6800.00   7.8902E-10   50.000     3692314.
 6850.00   7.7584E-10   50.000     3180119.
 6900.00   7.6289E-10   50.000     2899772.
 6950.00   7.5016E-10   50.000     3160552.
 7000.00   7.3766E-10   50.000     3073734.
 7050.00   7.2538E-10   50.000     2781440.
[deneb_oxygen.00000038.CF.ms.L.fits] 1 765 20.00 1.100  4332.629  5038.882 
 4850.00    1.4902E-9   50.000     1289721.
 4900.00    1.4686E-9   50.000     4038596.
 4950.00    1.4470E-9   50.000     3946170.
 5000.00    1.4255E-9   50.000     4029624.
[deneb_oxygen.00000038.CF.ms.L.fits] 1 765 20.00 1.100  4332.629  5038.882 
 4400.00    1.6828E-9   50.000     1755400.
 4450.00    1.6620E-9   50.000     2022629.
 4500.00    1.6410E-9   50.000     2115608.
 4550.00    1.6197E-9   50.000     2265938.
 4600.00    1.5983E-9   50.000     2558797.
 4650.00    1.5768E-9   50.000     2637564.
 4700.00    1.5552E-9   50.000     3002858.
 4750.00    1.5336E-9   50.000     3031187.
 4800.00    1.5119E-9   50.000     3339944.
 4850.00    1.4902E-9   50.000     3290371.
 4900.00    1.4686E-9   50.000     3928213.
 4950.00    1.4470E-9   50.000     3647635.
 5000.00    1.4255E-9   50.000     3194763.
[deneb_oxygen.00000038.CF.ms.L.fits] 1 765 20.00 1.100  4332.629  5038.882 
 4400.00    1.6828E-9   50.000     1755400.
 4450.00    1.6620E-9   50.000     2022629.
 4500.00    1.6410E-9   50.000     2115608.
 4550.00    1.6197E-9   50.000     2265938.
 4600.00    1.5983E-9   50.000     2558797.
 4650.00    1.5768E-9   50.000     2637564.
 4700.00    1.5552E-9   50.000     3002858.
 4750.00    1.5336E-9   50.000     3031187.
 4800.00    1.5119E-9   50.000     3339944.
 4850.00    1.4902E-9   50.000     3290371.
 4900.00    1.4686E-9   50.000     3928213.
 4950.00    1.4470E-9   50.000     3647635.
 5000.00    1.4255E-9   50.000     3194763.
